3/9/2021 6:24:08 PM
Series 1
-----------------------------------------------
Frequency (kHz)	RMS (V)
183.109   0.312
183.118   0.312
183.128   0.315
183.138   0.316
183.147   0.318
183.157   0.320
183.167   0.322
183.177   0.322
183.186   0.324
183.196   0.326
183.206   0.328
183.215   0.329
183.225   0.331
183.235   0.333
183.245   0.333
183.254   0.335
183.264   0.337
183.274   0.338
183.284   0.340
183.293   0.342
183.303   0.343
183.313   0.345
183.322   0.347
183.332   0.348
183.342   0.349
183.352   0.351
183.361   0.353
183.371   0.355
183.381   0.356
183.390   0.357
183.400   0.359
183.410   0.360
183.420   0.360
183.429   0.362
183.439   0.364
183.449   0.364
183.459   0.366
183.468   0.368
183.478   0.369
183.488   0.371
183.497   0.372
183.507   0.374
183.517   0.375
183.527   0.376
183.536   0.378
183.546   0.380
183.556   0.381
183.566   0.382
183.575   0.383
183.585   0.385
183.595   0.385
183.604   0.387
183.614   0.389
183.624   0.390
183.634   0.392
183.643   0.393
183.653   0.394
183.663   0.394
183.672   0.396
183.682   0.397
183.692   0.398
183.702   0.399
183.711   0.400
183.721   0.402
183.731   0.402
183.741   0.403
183.750   0.405
183.760   0.406
183.770   0.407
183.779   0.409
183.789   0.409
183.799   0.410
183.809   0.412
183.818   0.413
183.828   0.413
183.838   0.414
183.847   0.416
183.857   0.417
183.867   0.418
183.877   0.419
183.886   0.420
183.896   0.421
183.906   0.423
183.916   0.422
183.925   0.423
183.935   0.424
183.945   0.426
183.954   0.426
183.964   0.427
183.974   0.428
183.984   0.429
183.993   0.430
184.003   0.431
184.013   0.432
184.023   0.432
184.032   0.432
184.042   0.434
184.052   0.435
184.061   0.435
184.071   0.437
184.081   0.438
184.091   0.438
184.100   0.439
184.110   0.440
184.120   0.440
184.129   0.441
184.139   0.441
184.149   0.442
184.159   0.443
184.168   0.444
184.178   0.445
184.188   0.445
184.198   0.446
184.207   0.447
184.217   0.447
184.227   0.448
184.236   0.449
184.246   0.449
184.256   0.450
184.266   0.451
184.275   0.451
184.285   0.452
184.295   0.454
184.304   0.455
184.314   0.455
184.324   0.456
184.334   0.456
184.343   0.456
184.353   0.457
184.363   0.457
184.373   0.459
184.382   0.460
184.392   0.460
184.402   0.461
184.411   0.463
184.421   0.463
184.431   0.464
184.441   0.465
184.450   0.465
184.460   0.465
184.470   0.464
184.480   0.466
184.489   0.467
184.499   0.466
184.509   0.467
184.518   0.469
184.528   0.469
184.538   0.468
184.548   0.469
184.557   0.470
184.567   0.470
184.577   0.472
184.586   0.472
184.596   0.472
184.606   0.473
184.616   0.473
184.625   0.473
184.635   0.475
184.645   0.476
184.655   0.476
184.664   0.477
184.674   0.477
184.684   0.479
184.693   0.480
184.703   0.480
184.713   0.481
184.723   0.481
184.732   0.482
184.742   0.483
184.752   0.483
184.761   0.484
184.771   0.484
184.781   0.484
184.791   0.485
184.800   0.485
184.810   0.487
184.820   0.487
184.830   0.487
184.839   0.488
184.849   0.489
184.859   0.490
184.868   0.490
184.878   0.491
184.888   0.492
184.898   0.492
184.907   0.494
184.917   0.494
184.927   0.494
184.937   0.495
184.946   0.495
184.956   0.496
184.966   0.496
184.975   0.498
184.985   0.497
184.995   0.498
185.005   0.499
185.014   0.499
185.024   0.500
185.034   0.501
185.043   0.500
185.053   0.501
185.063   0.502
185.073   0.503
185.082   0.504
185.092   0.504
185.102   0.504
185.112   0.506
185.121   0.506
185.131   0.506
185.141   0.507
185.150   0.508
185.160   0.509
185.170   0.510
185.180   0.509
185.189   0.510
185.199   0.511
185.209   0.512
185.218   0.512
185.228   0.513
185.238   0.515
185.248   0.516
185.257   0.515
185.267   0.517
185.277   0.516
185.287   0.518
185.296   0.518
185.306   0.519
185.316   0.519
185.325   0.520
185.335   0.520
185.345   0.522
185.355   0.523
185.364   0.524
185.374   0.524
185.384   0.524
185.394   0.526
185.403   0.526
185.413   0.527
185.423   0.528
185.432   0.528
185.442   0.530
185.452   0.531
185.462   0.531
185.471   0.531
185.481   0.532
185.491   0.532
185.500   0.533
185.510   0.534
185.520   0.536
185.530   0.536
185.539   0.537
185.549   0.538
185.559   0.538
185.569   0.539
185.578   0.540
185.588   0.541
185.598   0.542
185.607   0.542
185.617   0.544
185.627   0.544
185.637   0.546
185.646   0.547
185.656   0.548
185.666   0.549
185.676   0.550
185.685   0.550
185.695   0.551
185.705   0.552
185.714   0.554
185.724   0.554
185.734   0.556
185.744   0.556
185.753   0.557
185.763   0.558
185.773   0.560
185.782   0.560
185.792   0.563
185.802   0.563
185.812   0.565
185.821   0.565
185.831   0.567
185.841   0.567
185.851   0.569
185.860   0.570
185.870   0.570
185.880   0.571
185.889   0.572
185.899   0.573
185.909   0.574
185.919   0.575
185.928   0.577
185.938   0.578
185.948   0.579
185.957   0.581
185.967   0.581
185.977   0.583
185.987   0.584
185.996   0.586
186.006   0.586
186.016   0.588
186.026   0.589
186.035   0.590
186.045   0.591
186.055   0.591
186.064   0.593
186.074   0.594
186.084   0.596
186.094   0.597
186.103   0.599
186.113   0.600
186.123   0.601
186.133   0.603
186.142   0.604
186.152   0.605
186.162   0.606
186.171   0.608
186.181   0.608
186.191   0.611
186.201   0.612
186.210   0.613
186.220   0.614
186.230   0.617
186.239   0.619
186.249   0.619
186.259   0.621
186.269   0.623
186.278   0.623
186.288   0.625
186.298   0.627
186.308   0.628
186.317   0.629
186.327   0.631
186.337   0.631
186.346   0.633
186.356   0.634
186.366   0.637
186.376   0.639
186.385   0.641
186.395   0.642
186.405   0.644
186.414   0.645
186.424   0.647
186.434   0.650
186.444   0.652
186.453   0.653
186.463   0.655
186.473   0.658
186.483   0.660
186.492   0.663
186.502   0.665
186.512   0.666
186.521   0.668
186.531   0.670
186.541   0.672
186.551   0.676
186.560   0.677
186.570   0.680
186.580   0.682
186.590   0.685
186.599   0.687
186.609   0.689
186.619   0.692
186.628   0.694
186.638   0.697
186.648   0.698
186.658   0.701
186.667   0.704
186.677   0.708
186.687   0.710
186.696   0.713
186.706   0.715
186.716   0.719
186.726   0.722
186.735   0.725
186.745   0.727
186.755   0.730
186.765   0.734
186.774   0.737
186.784   0.740
186.794   0.743
186.803   0.746
186.813   0.750
186.823   0.754
186.833   0.757
186.842   0.761
186.852   0.765
186.862   0.768
186.871   0.772
186.881   0.776
186.891   0.780
186.901   0.783
186.910   0.790
186.920   0.792
186.930   0.797
186.940   0.802
186.949   0.807
186.959   0.812
186.969   0.817
186.978   0.820
186.988   0.826
186.998   0.831
187.008   0.837
187.017   0.842
187.027   0.848
187.037   0.853
187.047   0.857
187.056   0.863
187.066   0.869
187.076   0.876
187.085   0.882
187.095   0.889
187.105   0.895
187.115   0.901
187.124   0.909
187.134   0.915
187.144   0.923
187.153   0.930
187.163   0.937
187.173   0.943
187.183   0.953
187.192   0.961
187.202   0.968
187.212   0.977
187.222   0.985
187.231   0.994
187.241   1.001
187.251   1.011
187.260   1.020
187.270   1.030
187.280   1.039
187.290   1.051
187.299   1.060
187.309   1.070
187.319   1.081
187.328   1.093
187.338   1.105
187.348   1.115
187.358   1.127
187.367   1.139
187.377   1.151
187.387   1.164
187.397   1.177
187.406   1.189
187.416   1.204
187.426   1.218
187.435   1.233
187.445   1.249
187.455   1.262
187.465   1.280
187.474   1.301
187.484   1.317
187.494   1.339
187.504   1.348
187.513   1.365
187.523   1.392
187.533   1.410
187.542   1.431
187.552   1.452
187.562   1.475
187.572   1.497
187.581   1.520
187.591   1.545
187.601   1.570
187.610   1.595
187.620   1.623
187.630   1.648
187.640   1.677
187.649   1.707
187.659   1.735
187.669   1.765
187.679   1.797
187.688   1.828
187.698   1.860
187.708   1.897
187.717   1.931
187.727   1.965
187.737   2.000
187.747   2.035
187.756   2.072
187.766   2.109
187.776   2.147
187.785   2.185
187.795   2.219
187.805   2.254
187.815   2.288
187.824   2.325
187.834   2.360
187.844   2.394
187.854   2.423
187.863   2.448
187.873   2.471
187.883   2.492
187.892   2.509
187.902   2.526
187.912   2.536
187.922   2.544
187.931   2.543
187.941   2.545
187.951   2.538
187.961   2.526
187.970   2.509
187.980   2.486
187.990   2.461
187.999   2.432
188.009   2.398
188.019   2.357
188.029   2.317
188.038   2.274
188.048   2.225
188.058   2.178
188.067   2.128
188.077   2.077
188.087   2.026
188.097   1.976
188.106   1.925
188.116   1.876
188.126   1.828
188.136   1.777
188.145   1.727
188.155   1.682
188.165   1.637
188.174   1.593
188.184   1.551
188.194   1.508
188.204   1.469
188.213   1.429
188.223   1.394
188.233   1.356
188.243   1.324
188.252   1.288
188.262   1.255
188.272   1.222
188.281   1.192
188.291   1.162
188.301   1.135
188.311   1.105
188.320   1.079
188.330   1.052
188.340   1.029
188.349   1.005
188.359   0.981
188.369   0.960
188.379   0.938
188.388   0.917
188.398   0.897
188.408   0.876
188.418   0.857
188.427   0.838
188.437   0.819
188.447   0.801
188.456   0.784
188.466   0.767
188.476   0.752
188.486   0.736
188.495   0.722
188.505   0.707
188.515   0.693
188.524   0.678
188.534   0.666
188.544   0.652
188.554   0.640
188.563   0.627
188.573   0.616
188.583   0.605
188.593   0.593
188.602   0.583
188.612   0.572
188.622   0.563
188.631   0.554
188.641   0.543
188.651   0.535
188.661   0.525
188.670   0.517
188.680   0.510
188.690   0.501
188.700   0.492
188.709   0.485
188.719   0.478
188.729   0.471
188.738   0.464
188.748   0.457
188.758   0.450
188.768   0.445
188.777   0.440
188.787   0.434
188.797   0.429
188.806   0.422
188.816   0.418
188.826   0.413
188.836   0.408
188.845   0.403
188.855   0.400
188.865   0.396
188.875   0.392
188.884   0.388
188.894   0.385
188.904   0.381
188.913   0.378
188.923   0.374
188.933   0.372
188.943   0.369
188.952   0.367
188.962   0.365
188.972   0.361
188.981   0.360
188.991   0.358
189.001   0.356
189.011   0.355
189.020   0.353
189.030   0.352
189.040   0.351
189.050   0.350
189.059   0.349
189.069   0.347
189.079   0.347
189.088   0.347
189.098   0.346
189.108   0.346
189.118   0.345
189.127   0.346
189.137   0.346
189.147   0.346
189.157   0.345
189.166   0.346
189.176   0.345
189.186   0.346
189.195   0.346
189.205   0.347
189.215   0.347
189.225   0.346
189.234   0.348
189.244   0.349
189.254   0.349
189.263   0.350
189.273   0.350
189.283   0.352
189.293   0.352
189.302   0.354
189.312   0.354
189.322   0.356
189.332   0.357
189.341   0.357
189.351   0.359
189.361   0.360
189.370   0.362
189.380   0.363
189.390   0.364
189.400   0.366
189.409   0.368
189.419   0.368
189.429   0.370
189.438   0.371
189.448   0.374
189.458   0.375
189.468   0.377
189.477   0.378
189.487   0.380
189.497   0.381
189.507   0.383
189.516   0.385
189.526   0.386
189.536   0.388
189.545   0.389
189.555   0.391
189.565   0.393
189.575   0.394
189.584   0.397
189.594   0.398
189.604   0.399
189.614   0.400
189.623   0.403
189.633   0.405
189.643   0.406
189.652   0.407
189.662   0.409
189.672   0.411
189.682   0.412
189.691   0.414
189.701   0.415
189.711   0.416
189.720   0.417
189.730   0.419
189.740   0.420
189.750   0.422
189.759   0.423
189.769   0.424
189.779   0.425
189.789   0.426
189.798   0.427
189.808   0.429
189.818   0.430
189.827   0.430
189.837   0.432
189.847   0.432
189.857   0.433
189.866   0.434
189.876   0.436
189.886   0.437
189.895   0.437
189.905   0.438
189.915   0.439
189.925   0.440
189.934   0.440
189.944   0.442
189.954   0.442
189.964   0.442
189.973   0.444
189.983   0.444
189.993   0.446
190.002   0.445
190.012   0.446
190.022   0.446
190.032   0.445
190.041   0.447
190.051   0.447
190.061   0.449
190.071   0.447
190.080   0.448
190.090   0.448
190.100   0.448
190.109   0.448
190.119   0.448
190.129   0.449
190.139   0.448
190.148   0.449
190.158   0.447
190.168   0.449
190.177   0.448
190.187   0.447
190.197   0.447
190.207   0.446
190.216   0.446
190.226   0.445
190.236   0.445
190.246   0.445
190.255   0.443
190.265   0.443
190.275   0.443
190.284   0.442
190.294   0.440
190.304   0.440
190.314   0.438
190.323   0.438
190.333   0.437
190.343   0.435
190.352   0.435
190.362   0.435
190.372   0.432
190.382   0.432
190.391   0.431
190.401   0.429
190.411   0.429
190.421   0.427
190.430   0.425
190.440   0.424
190.450   0.424
190.459   0.422
190.469   0.421
190.479   0.420
190.489   0.418
190.498   0.417
190.508   0.415
190.518   0.414
190.528   0.414
190.537   0.411
190.547   0.410
190.557   0.408
190.566   0.408
190.576   0.406
190.586   0.404
190.596   0.403
190.605   0.401
190.615   0.399
190.625   0.397
190.634   0.396
190.644   0.394
190.654   0.394
190.664   0.391
190.673   0.390
190.683   0.388
190.693   0.387
190.703   0.385
190.712   0.382
190.722   0.381
190.732   0.380
190.741   0.378
190.751   0.376
190.761   0.373
190.771   0.373
190.780   0.370
190.790   0.369
190.800   0.367
190.810   0.365
190.819   0.364
190.829   0.363
190.839   0.361
190.848   0.360
190.858   0.357
190.868   0.355
190.878   0.354
190.887   0.352
190.897   0.351
190.907   0.350
190.916   0.348
190.926   0.346
190.936   0.344
190.946   0.342
190.955   0.339
190.965   0.338
190.975   0.337
190.985   0.334
190.994   0.334
191.004   0.332
191.014   0.330
191.023   0.328
191.033   0.327
191.043   0.326
191.053   0.324
191.062   0.322
191.072   0.321
191.082   0.319
191.091   0.317
191.101   0.316
191.111   0.316
191.121   0.314
191.130   0.313
191.140   0.310
191.150   0.309
191.160   0.307
191.169   0.306
191.179   0.305
191.189   0.303
191.198   0.301
191.208   0.300
191.218   0.299
191.228   0.297
191.237   0.295
191.247   0.294
191.257   0.293
191.267   0.291
191.276   0.289
191.286   0.289
191.296   0.287
191.305   0.285
191.315   0.284
191.325   0.283
191.335   0.281
191.344   0.280
191.354   0.278
191.364   0.277
191.373   0.276
191.383   0.274
191.393   0.274
191.403   0.271
191.412   0.272
191.422   0.270
191.432   0.269
191.442   0.268
191.451   0.267
191.461   0.266
191.471   0.263
191.480   0.263
191.490   0.261
191.500   0.260
191.510   0.259
191.519   0.258
191.529   0.257
191.539   0.256
191.548   0.254
191.558   0.252
191.568   0.252
191.578   0.252
191.587   0.250
191.597   0.249
191.607   0.248
191.617   0.248
191.626   0.245
191.636   0.244
191.646   0.244
191.655   0.243
191.665   0.241
191.675   0.240
191.685   0.239
191.694   0.237
191.704   0.236
191.714   0.236
191.724   0.234
191.733   0.234
191.743   0.233
191.753   0.232
191.762   0.230
191.772   0.229
191.782   0.229
191.792   0.227
191.801   0.227
191.811   0.226
191.821   0.225
191.830   0.224
191.840   0.223
191.850   0.221
191.860   0.221
191.869   0.221
191.879   0.219
191.889   0.219
191.899   0.218
191.908   0.217
191.918   0.217
191.928   0.216
191.937   0.214
191.947   0.213
191.957   0.213
191.967   0.212
191.976   0.211
191.986   0.210
191.996   0.210
192.005   0.209
192.015   0.209
192.025   0.208
192.035   0.206
192.044   0.205
192.054   0.205
192.064   0.204
192.074   0.203
192.083   0.202
192.093   0.202
192.103   0.200
192.112   0.200
192.122   0.200
192.132   0.198
192.142   0.197
192.151   0.197
192.161   0.197
192.171   0.196
192.181   0.195
192.190   0.194
192.200   0.193
192.210   0.192
192.219   0.192
192.229   0.190
192.239   0.190
192.249   0.189
192.258   0.189
192.268   0.187
192.278   0.187
192.287   0.187
192.297   0.186
192.307   0.185
192.317   0.184
192.326   0.184
192.336   0.183
192.346   0.182
192.356   0.182
192.365   0.181
192.375   0.181
192.385   0.180
192.394   0.178
192.404   0.178
192.414   0.178
192.424   0.177
192.433   0.176
192.443   0.175
192.453   0.175
192.462   0.174
192.472   0.174
192.482   0.173
192.492   0.172
192.501   0.172
192.511   0.171
192.521   0.171
192.531   0.170
192.540   0.169
192.550   0.168
192.560   0.169
192.569   0.167
192.579   0.167
192.589   0.167
192.599   0.165
192.608   0.165
192.618   0.165
192.628   0.165
192.638   0.164
192.647   0.163
192.657   0.162
192.667   0.162
192.676   0.162
192.686   0.161
192.696   0.160
192.706   0.160
192.715   0.160
192.725   0.158
192.735   0.158
192.744   0.158
192.754   0.158
192.764   0.157
192.774   0.156
192.783   0.156
192.793   0.155
192.803   0.156
192.813   0.155
192.822   0.154
192.832   0.153
192.842   0.153
192.851   0.152
192.861   0.151
192.871   0.152
192.881   0.151
192.890   0.150
192.900   0.150
192.910   0.149
192.919   0.149
192.929   0.149
192.939   0.148
192.949   0.148
192.958   0.148
192.968   0.147
192.978   0.146
192.988   0.146
192.997   0.145
193.007   0.145
193.017   0.145
193.026   0.145
193.036   0.144
193.046   0.144
193.056   0.143
193.065   0.143
193.075   0.142
193.085   0.142
193.095   0.141
193.104   0.141



