3/9/2021 6:36:01 PM
Series 1
-----------------------------------------------
Frequency (kHz)	RMS (V)
183.109   0.323
183.118   0.324
183.128   0.325
183.138   0.327
183.147   0.329
183.157   0.330
183.167   0.332
183.177   0.334
183.186   0.335
183.196   0.337
183.206   0.338
183.215   0.340
183.225   0.342
183.235   0.343
183.245   0.343
183.254   0.346
183.264   0.348
183.274   0.350
183.284   0.352
183.293   0.353
183.303   0.354
183.313   0.356
183.322   0.358
183.332   0.359
183.342   0.360
183.352   0.361
183.361   0.363
183.371   0.364
183.381   0.366
183.390   0.368
183.400   0.370
183.410   0.371
183.420   0.373
183.429   0.374
183.439   0.374
183.449   0.377
183.459   0.378
183.468   0.379
183.478   0.381
183.488   0.382
183.497   0.384
183.507   0.385
183.517   0.386
183.527   0.389
183.536   0.389
183.546   0.392
183.556   0.392
183.566   0.394
183.575   0.394
183.585   0.396
183.595   0.397
183.604   0.399
183.614   0.401
183.624   0.400
183.634   0.401
183.643   0.403
183.653   0.404
183.663   0.406
183.672   0.407
183.682   0.409
183.692   0.409
183.702   0.411
183.711   0.411
183.721   0.413
183.731   0.414
183.741   0.415
183.750   0.417
183.760   0.418
183.770   0.420
183.779   0.421
183.789   0.421
183.799   0.422
183.809   0.424
183.818   0.425
183.828   0.426
183.838   0.426
183.847   0.428
183.857   0.429
183.867   0.431
183.877   0.431
183.886   0.431
183.896   0.433
183.906   0.435
183.916   0.435
183.925   0.436
183.935   0.437
183.945   0.438
183.954   0.439
183.964   0.439
183.974   0.441
183.984   0.442
183.993   0.443
184.003   0.444
184.013   0.445
184.023   0.445
184.032   0.446
184.042   0.447
184.052   0.448
184.061   0.449
184.071   0.450
184.081   0.451
184.091   0.452
184.100   0.453
184.110   0.453
184.120   0.455
184.129   0.455
184.139   0.456
184.149   0.457
184.159   0.457
184.168   0.459
184.178   0.460
184.188   0.461
184.198   0.461
184.207   0.462
184.217   0.463
184.227   0.465
184.236   0.465
184.246   0.465
184.256   0.466
184.266   0.466
184.275   0.467
184.285   0.468
184.295   0.469
184.304   0.469
184.314   0.470
184.324   0.471
184.334   0.472
184.343   0.471
184.353   0.473
184.363   0.473
184.373   0.475
184.382   0.474
184.392   0.474
184.402   0.477
184.411   0.476
184.421   0.476
184.431   0.477
184.441   0.477
184.450   0.480
184.460   0.480
184.470   0.482
184.480   0.481
184.489   0.482
184.499   0.483
184.509   0.483
184.518   0.483
184.528   0.485
184.538   0.486
184.548   0.486
184.557   0.487
184.567   0.488
184.577   0.488
184.586   0.488
184.596   0.489
184.606   0.490
184.616   0.490
184.625   0.491
184.635   0.491
184.645   0.492
184.655   0.492
184.664   0.493
184.674   0.493
184.684   0.494
184.693   0.494
184.703   0.494
184.713   0.496
184.723   0.495
184.732   0.496
184.742   0.498
184.752   0.499
184.761   0.499
184.771   0.499
184.781   0.500
184.791   0.501
184.800   0.502
184.810   0.502
184.820   0.503
184.830   0.503
184.839   0.504
184.849   0.505
184.859   0.505
184.868   0.507
184.878   0.507
184.888   0.508
184.898   0.509
184.907   0.509
184.917   0.509
184.927   0.509
184.937   0.511
184.946   0.511
184.956   0.512
184.966   0.512
184.975   0.513
184.985   0.514
184.995   0.513
185.005   0.515
185.014   0.515
185.024   0.515
185.034   0.516
185.043   0.518
185.053   0.519
185.063   0.519
185.073   0.519
185.082   0.520
185.092   0.520
185.102   0.521
185.112   0.522
185.121   0.522
185.131   0.523
185.141   0.524
185.150   0.524
185.160   0.525
185.170   0.525
185.180   0.525
185.189   0.527
185.199   0.528
185.209   0.528
185.218   0.528
185.228   0.530
185.238   0.530
185.248   0.530
185.257   0.532
185.267   0.533
185.277   0.533
185.287   0.533
185.296   0.534
185.306   0.535
185.316   0.536
185.325   0.535
185.335   0.536
185.345   0.537
185.355   0.538
185.364   0.541
185.374   0.540
185.384   0.542
185.394   0.542
185.403   0.543
185.413   0.543
185.423   0.544
185.432   0.543
185.442   0.546
185.452   0.547
185.462   0.548
185.471   0.548
185.481   0.549
185.491   0.550
185.500   0.550
185.510   0.551
185.520   0.552
185.530   0.553
185.539   0.554
185.549   0.555
185.559   0.556
185.569   0.556
185.578   0.557
185.588   0.559
185.598   0.560
185.607   0.561
185.617   0.561
185.627   0.561
185.637   0.562
185.646   0.563
185.656   0.564
185.666   0.565
185.676   0.565
185.685   0.567
185.695   0.567
185.705   0.568
185.714   0.568
185.724   0.568
185.734   0.570
185.744   0.570
185.753   0.571
185.763   0.573
185.773   0.573
185.782   0.572
185.792   0.574
185.802   0.576
185.812   0.576
185.821   0.577
185.831   0.578
185.841   0.579
185.851   0.582
185.860   0.582
185.870   0.583
185.880   0.584
185.889   0.586
185.899   0.586
185.909   0.587
185.919   0.588
185.928   0.589
185.938   0.591
185.948   0.593
185.957   0.594
185.967   0.593
185.977   0.595
185.987   0.595
185.996   0.596
186.006   0.597
186.016   0.598
186.026   0.599
186.035   0.601
186.045   0.602
186.055   0.603
186.064   0.604
186.074   0.605
186.084   0.607
186.094   0.610
186.103   0.611
186.113   0.611
186.123   0.611
186.133   0.614
186.142   0.616
186.152   0.615
186.162   0.616
186.171   0.618
186.181   0.620
186.191   0.621
186.201   0.622
186.210   0.623
186.220   0.625
186.230   0.625
186.239   0.628
186.249   0.629
186.259   0.629
186.269   0.632
186.278   0.632
186.288   0.634
186.298   0.634
186.308   0.636
186.317   0.638
186.327   0.640
186.337   0.641
186.346   0.642
186.356   0.645
186.366   0.646
186.376   0.648
186.385   0.650
186.395   0.652
186.405   0.654
186.414   0.656
186.424   0.656
186.434   0.658
186.444   0.660
186.453   0.663
186.463   0.665
186.473   0.667
186.483   0.668
186.492   0.670
186.502   0.672
186.512   0.673
186.521   0.675
186.531   0.676
186.541   0.677
186.551   0.680
186.560   0.682
186.570   0.685
186.580   0.688
186.590   0.689
186.599   0.692
186.609   0.692
186.619   0.696
186.628   0.698
186.638   0.701
186.648   0.703
186.658   0.707
186.667   0.710
186.677   0.711
186.687   0.713
186.696   0.717
186.706   0.720
186.716   0.722
186.726   0.725
186.735   0.727
186.745   0.729
186.755   0.732
186.765   0.736
186.774   0.738
186.784   0.743
186.794   0.745
186.803   0.749
186.813   0.754
186.823   0.757
186.833   0.761
186.842   0.764
186.852   0.769
186.862   0.773
186.871   0.776
186.881   0.781
186.891   0.783
186.901   0.786
186.910   0.790
186.920   0.795
186.930   0.800
186.940   0.802
186.949   0.807
186.959   0.812
186.969   0.816
186.978   0.821
186.988   0.825
186.998   0.829
187.008   0.835
187.017   0.840
187.027   0.846
187.037   0.852
187.047   0.857
187.056   0.863
187.066   0.868
187.076   0.874
187.085   0.879
187.095   0.886
187.105   0.891
187.115   0.899
187.124   0.905
187.134   0.913
187.144   0.919
187.153   0.925
187.163   0.933
187.173   0.939
187.183   0.948
187.192   0.956
187.202   0.962
187.212   0.971
187.222   0.978
187.231   0.986
187.241   0.995
187.251   1.004
187.260   1.013
187.270   1.022
187.280   1.033
187.290   1.041
187.299   1.051
187.309   1.061
187.319   1.071
187.328   1.082
187.338   1.093
187.348   1.104
187.358   1.116
187.367   1.129
187.377   1.142
187.387   1.153
187.397   1.166
187.406   1.180
187.416   1.193
187.426   1.208
187.435   1.219
187.445   1.237
187.455   1.251
187.465   1.263
187.474   1.283
187.484   1.303
187.494   1.319
187.504   1.327
187.513   1.357
187.523   1.375
187.533   1.391
187.542   1.415
187.552   1.432
187.562   1.455
187.572   1.479
187.581   1.502
187.591   1.524
187.601   1.549
187.610   1.575
187.620   1.599
187.630   1.625
187.640   1.652
187.649   1.682
187.659   1.711
187.669   1.740
187.679   1.770
187.688   1.800
187.698   1.833
187.708   1.865
187.717   1.895
187.727   1.928
187.737   1.961
187.747   1.993
187.756   2.027
187.766   2.062
187.776   2.096
187.785   2.127
187.795   2.158
187.805   2.188
187.815   2.220
187.824   2.248
187.834   2.276
187.844   2.303
187.854   2.325
187.863   2.347
187.873   2.365
187.883   2.379
187.892   2.393
187.902   2.397
187.912   2.399
187.922   2.397
187.931   2.392
187.941   2.382
187.951   2.368
187.961   2.349
187.970   2.322
187.980   2.294
187.990   2.263
187.999   2.227
188.009   2.189
188.019   2.149
188.029   2.107
188.038   2.065
188.048   2.018
188.058   1.973
188.067   1.926
188.077   1.879
188.087   1.830
188.097   1.783
188.106   1.738
188.116   1.692
188.126   1.648
188.136   1.603
188.145   1.560
188.155   1.515
188.165   1.475
188.174   1.434
188.184   1.397
188.194   1.359
188.204   1.323
188.213   1.288
188.223   1.254
188.233   1.222
188.243   1.189
188.252   1.159
188.262   1.130
188.272   1.103
188.281   1.076
188.291   1.048
188.301   1.024
188.311   0.998
188.320   0.975
188.330   0.953
188.340   0.931
188.349   0.908
188.359   0.888
188.369   0.868
188.379   0.850
188.388   0.831
188.398   0.813
188.408   0.796
188.418   0.780
188.427   0.765
188.437   0.750
188.447   0.736
188.456   0.721
188.466   0.707
188.476   0.694
188.486   0.682
188.495   0.668
188.505   0.657
188.515   0.645
188.524   0.634
188.534   0.624
188.544   0.615
188.554   0.603
188.563   0.594
188.573   0.586
188.583   0.577
188.593   0.569
188.602   0.561
188.612   0.553
188.622   0.545
188.631   0.538
188.641   0.532
188.651   0.526
188.661   0.521
188.670   0.515
188.680   0.509
188.690   0.505
188.700   0.499
188.709   0.494
188.719   0.490
188.729   0.486
188.738   0.482
188.748   0.478
188.758   0.475
188.768   0.472
188.777   0.469
188.787   0.466
188.797   0.464
188.806   0.462
188.816   0.459
188.826   0.459
188.836   0.458
188.845   0.455
188.855   0.454
188.865   0.453
188.875   0.452
188.884   0.452
188.894   0.451
188.904   0.451
188.913   0.450
188.923   0.450
188.933   0.450
188.943   0.450
188.952   0.450
188.962   0.450
188.972   0.450
188.981   0.452
188.991   0.452
189.001   0.453
189.011   0.454
189.020   0.455
189.030   0.457
189.040   0.457
189.050   0.459
189.059   0.460
189.069   0.462
189.079   0.463
189.088   0.464
189.098   0.465
189.108   0.466
189.118   0.467
189.127   0.470
189.137   0.472
189.147   0.474
189.157   0.475
189.166   0.476
189.176   0.479
189.186   0.481
189.195   0.484
189.205   0.486
189.215   0.487
189.225   0.489
189.234   0.492
189.244   0.495
189.254   0.497
189.263   0.498
189.273   0.500
189.283   0.501
189.293   0.504
189.302   0.506
189.312   0.508
189.322   0.511
189.332   0.512
189.341   0.515
189.351   0.516
189.361   0.520
189.370   0.520
189.380   0.523
189.390   0.526
189.400   0.528
189.409   0.530
189.419   0.532
189.429   0.534
189.438   0.536
189.448   0.538
189.458   0.541
189.468   0.542
189.477   0.543
189.487   0.545
189.497   0.546
189.507   0.549
189.516   0.550
189.526   0.552
189.536   0.553
189.545   0.554
189.555   0.557
189.565   0.557
189.575   0.559
189.584   0.560
189.594   0.562
189.604   0.564
189.614   0.565
189.623   0.565
189.633   0.565
189.643   0.567
189.652   0.567
189.662   0.568
189.672   0.569
189.682   0.569
189.691   0.569
189.701   0.570
189.711   0.571
189.720   0.572
189.730   0.572
189.740   0.572
189.750   0.572
189.759   0.573
189.769   0.574
189.779   0.573
189.789   0.573
189.798   0.573
189.808   0.572
189.818   0.573
189.827   0.572
189.837   0.572
189.847   0.572
189.857   0.572
189.866   0.571
189.876   0.571
189.886   0.570
189.895   0.570
189.905   0.569
189.915   0.569
189.925   0.567
189.934   0.566
189.944   0.565
189.954   0.564
189.964   0.563
189.973   0.563
189.983   0.561
189.993   0.559
190.002   0.558
190.012   0.556
190.022   0.555
190.032   0.553
190.041   0.551
190.051   0.551
190.061   0.549
190.071   0.548
190.080   0.547
190.090   0.545
190.100   0.545
190.109   0.542
190.119   0.540
190.129   0.538
190.139   0.537
190.148   0.534
190.158   0.533
190.168   0.531
190.177   0.529
190.187   0.526
190.197   0.525
190.207   0.523
190.216   0.521
190.226   0.519
190.236   0.516
190.246   0.515
190.255   0.512
190.265   0.510
190.275   0.509
190.284   0.506
190.294   0.504
190.304   0.501
190.314   0.500
190.323   0.498
190.333   0.496
190.343   0.493
190.352   0.490
190.362   0.489
190.372   0.486
190.382   0.484
190.391   0.482
190.401   0.479
190.411   0.478
190.421   0.475
190.430   0.473
190.440   0.469
190.450   0.467
190.459   0.466
190.469   0.463
190.479   0.462
190.489   0.458
190.498   0.456
190.508   0.453
190.518   0.452
190.528   0.449
190.537   0.447
190.547   0.444
190.557   0.442
190.566   0.439
190.576   0.438
190.586   0.435
190.596   0.432
190.605   0.430
190.615   0.428
190.625   0.425
190.634   0.423
190.644   0.419
190.654   0.419
190.664   0.416
190.673   0.413
190.683   0.412
190.693   0.409
190.703   0.407
190.712   0.404
190.722   0.402
190.732   0.401
190.741   0.399
190.751   0.397
190.761   0.394
190.771   0.393
190.780   0.390
190.790   0.388
190.800   0.386
190.810   0.384
190.819   0.382
190.829   0.381
190.839   0.379
190.848   0.376
190.858   0.375
190.868   0.372
190.878   0.370
190.887   0.368
190.897   0.366
190.907   0.363
190.916   0.362
190.926   0.360
190.936   0.358
190.946   0.356
190.955   0.354
190.965   0.351
190.975   0.351
190.985   0.349
190.994   0.347
191.004   0.344
191.014   0.342
191.023   0.342
191.033   0.339
191.043   0.338
191.053   0.337
191.062   0.335
191.072   0.333
191.082   0.331
191.091   0.329
191.101   0.328
191.111   0.325
191.121   0.323
191.130   0.321
191.140   0.319
191.150   0.318
191.160   0.317
191.169   0.315
191.179   0.314
191.189   0.313
191.198   0.311
191.208   0.309
191.218   0.309
191.228   0.307
191.237   0.306
191.247   0.304
191.257   0.302
191.267   0.300
191.276   0.299
191.286   0.298
191.296   0.296
191.305   0.295
191.315   0.293
191.325   0.293
191.335   0.290
191.344   0.289
191.354   0.286
191.364   0.285
191.373   0.284
191.383   0.282
191.393   0.281
191.403   0.280
191.412   0.279
191.422   0.277
191.432   0.277
191.442   0.275
191.451   0.274
191.461   0.273
191.471   0.271
191.480   0.270
191.490   0.269
191.500   0.268
191.510   0.267
191.519   0.266
191.529   0.265
191.539   0.263
191.548   0.262
191.558   0.261
191.568   0.259
191.578   0.258
191.587   0.256
191.597   0.255
191.607   0.254
191.617   0.253
191.626   0.252
191.636   0.251
191.646   0.249
191.655   0.248
191.665   0.246
191.675   0.246
191.685   0.244
191.694   0.244
191.704   0.243
191.714   0.242
191.724   0.241
191.733   0.240
191.743   0.239
191.753   0.238
191.762   0.237
191.772   0.235
191.782   0.235
191.792   0.233
191.801   0.233
191.811   0.231
191.821   0.232
191.830   0.230
191.840   0.229
191.850   0.229
191.860   0.227
191.869   0.226
191.879   0.225
191.889   0.224
191.899   0.224
191.908   0.223
191.918   0.221
191.928   0.220
191.937   0.220
191.947   0.218
191.957   0.217
191.967   0.217
191.976   0.216
191.986   0.215
191.996   0.214
192.005   0.213
192.015   0.212
192.025   0.211
192.035   0.211
192.044   0.210
192.054   0.209
192.064   0.208
192.074   0.207
192.083   0.207
192.093   0.206
192.103   0.205
192.112   0.205
192.122   0.203
192.132   0.203
192.142   0.202
192.151   0.201
192.161   0.200
192.171   0.199
192.181   0.199
192.190   0.198
192.200   0.197
192.210   0.197
192.219   0.196
192.229   0.195
192.239   0.194
192.249   0.195
192.258   0.193
192.268   0.192
192.278   0.192
192.287   0.191
192.297   0.190
192.307   0.190
192.317   0.190
192.326   0.190
192.336   0.189
192.346   0.188
192.356   0.187
192.365   0.187
192.375   0.186
192.385   0.185
192.394   0.185
192.404   0.183
192.414   0.183
192.424   0.182
192.433   0.182
192.443   0.181
192.453   0.180
192.462   0.180
192.472   0.180
192.482   0.178
192.492   0.177
192.501   0.177
192.511   0.176
192.521   0.175
192.531   0.176
192.540   0.175
192.550   0.174
192.560   0.174
192.569   0.173
192.579   0.172
192.589   0.171
192.599   0.171
192.608   0.171
192.618   0.170
192.628   0.170
192.638   0.169
192.647   0.169
192.657   0.168
192.667   0.168
192.676   0.167
192.686   0.166
192.696   0.166
192.706   0.166
192.715   0.165
192.725   0.164
192.735   0.164
192.744   0.164
192.754   0.163
192.764   0.163
192.774   0.163
192.783   0.162
192.793   0.161
192.803   0.161
192.813   0.161
192.822   0.160
192.832   0.160
192.842   0.159
192.851   0.158
192.861   0.158
192.871   0.157
192.881   0.158
192.890   0.157
192.900   0.156
192.910   0.156
192.919   0.155
192.929   0.154
192.939   0.154
192.949   0.153
192.958   0.153
192.968   0.153
192.978   0.153
192.988   0.153
192.997   0.152
193.007   0.151
193.017   0.151
193.026   0.150
193.036   0.150
193.046   0.149
193.056   0.149
193.065   0.149
193.075   0.148
193.085   0.148
193.095   0.148
193.104   0.147



