3/10/2021 10:00:12 AM
Series 1
-----------------------------------------------
Frequency (kHz)	RMS (V)
183.109   0.042
183.118   0.043
183.128   0.042
183.138   0.042
183.147   0.042
183.157   0.043
183.167   0.042
183.177   0.042
183.186   0.042
183.196   0.042
183.206   0.043
183.215   0.043
183.225   0.042
183.235   0.042
183.245   0.042
183.254   0.042
183.264   0.044
183.274   0.042
183.284   0.043
183.293   0.042
183.303   0.043
183.313   0.043
183.322   0.044
183.332   0.043
183.342   0.043
183.352   0.043
183.361   0.043
183.371   0.043
183.381   0.043
183.390   0.043
183.400   0.043
183.410   0.043
183.420   0.043
183.429   0.042
183.439   0.043
183.449   0.044
183.459   0.043
183.468   0.043
183.478   0.044
183.488   0.043
183.497   0.043
183.507   0.043
183.517   0.044
183.527   0.043
183.536   0.043
183.546   0.043
183.556   0.043
183.566   0.044
183.575   0.043
183.585   0.043
183.595   0.043
183.604   0.043
183.614   0.043
183.624   0.043
183.634   0.043
183.643   0.043
183.653   0.043
183.663   0.044
183.672   0.044
183.682   0.043
183.692   0.043
183.702   0.043
183.711   0.043
183.721   0.043
183.731   0.043
183.741   0.043
183.750   0.042
183.760   0.043
183.770   0.043
183.779   0.044
183.789   0.044
183.799   0.043
183.809   0.043
183.818   0.044
183.828   0.044
183.838   0.043
183.847   0.043
183.857   0.043
183.867   0.044
183.877   0.043
183.886   0.043
183.896   0.043
183.906   0.043
183.916   0.043
183.925   0.043
183.935   0.043
183.945   0.044
183.954   0.044
183.964   0.043
183.974   0.043
183.984   0.043
183.993   0.043
184.003   0.043
184.013   0.044
184.023   0.044
184.032   0.044
184.042   0.044
184.052   0.044
184.061   0.044
184.071   0.044
184.081   0.044
184.091   0.044
184.100   0.044
184.110   0.044
184.120   0.045
184.129   0.045
184.139   0.045
184.149   0.045
184.159   0.045
184.168   0.046
184.178   0.046
184.188   0.046
184.198   0.047
184.207   0.047
184.217   0.047
184.227   0.047
184.236   0.047
184.246   0.048
184.256   0.048
184.266   0.048
184.275   0.049
184.285   0.049
184.295   0.049
184.304   0.049
184.314   0.051
184.324   0.051
184.334   0.051
184.343   0.052
184.353   0.052
184.363   0.053
184.373   0.053
184.382   0.054
184.392   0.054
184.402   0.055
184.411   0.056
184.421   0.056
184.431   0.057
184.441   0.058
184.450   0.059
184.460   0.060
184.470   0.059
184.480   0.061
184.489   0.061
184.499   0.062
184.509   0.063
184.518   0.064
184.528   0.064
184.538   0.066
184.548   0.066
184.557   0.067
184.567   0.068
184.577   0.068
184.586   0.070
184.596   0.070
184.606   0.072
184.616   0.073
184.625   0.073
184.635   0.074
184.645   0.076
184.655   0.077
184.664   0.077
184.674   0.079
184.684   0.079
184.693   0.081
184.703   0.081
184.713   0.082
184.723   0.085
184.732   0.085
184.742   0.086
184.752   0.087
184.761   0.088
184.771   0.089
184.781   0.090
184.791   0.091
184.800   0.094
184.810   0.094
184.820   0.095
184.830   0.095
184.839   0.098
184.849   0.099
184.859   0.099
184.868   0.101
184.878   0.102
184.888   0.103
184.898   0.105
184.907   0.106
184.917   0.107
184.927   0.108
184.937   0.109
184.946   0.110
184.956   0.111
184.966   0.112
184.975   0.114
184.985   0.115
184.995   0.116
185.005   0.117
185.014   0.117
185.024   0.120
185.034   0.120
185.043   0.121
185.053   0.123
185.063   0.123
185.073   0.125
185.082   0.127
185.092   0.127
185.102   0.127
185.112   0.129
185.121   0.130
185.131   0.132
185.141   0.132
185.150   0.134
185.160   0.134
185.170   0.136
185.180   0.136
185.189   0.138
185.199   0.139
185.209   0.141
185.218   0.141
185.228   0.141
185.238   0.143
185.248   0.144
185.257   0.144
185.267   0.146
185.277   0.147
185.287   0.147
185.296   0.148
185.306   0.149
185.316   0.150
185.325   0.151
185.335   0.152
185.345   0.153
185.355   0.155
185.364   0.154
185.374   0.157
185.384   0.157
185.394   0.159
185.403   0.159
185.413   0.160
185.423   0.161
185.432   0.161
185.442   0.163
185.452   0.163
185.462   0.164
185.471   0.165
185.481   0.166
185.491   0.166
185.500   0.167
185.510   0.168
185.520   0.170
185.530   0.170
185.539   0.171
185.549   0.171
185.559   0.173
185.569   0.173
185.578   0.174
185.588   0.174
185.598   0.176
185.607   0.177
185.617   0.178
185.627   0.179
185.637   0.180
185.646   0.181
185.656   0.181
185.666   0.182
185.676   0.183
185.685   0.184
185.695   0.184
185.705   0.185
185.714   0.186
185.724   0.187
185.734   0.188
185.744   0.189
185.753   0.190
185.763   0.191
185.773   0.191
185.782   0.193
185.792   0.194
185.802   0.194
185.812   0.195
185.821   0.197
185.831   0.197
185.841   0.198
185.851   0.200
185.860   0.200
185.870   0.201
185.880   0.202
185.889   0.203
185.899   0.204
185.909   0.205
185.919   0.206
185.928   0.207
185.938   0.207
185.948   0.209
185.957   0.210
185.967   0.211
185.977   0.212
185.987   0.213
185.996   0.214
186.006   0.215
186.016   0.216
186.026   0.217
186.035   0.218
186.045   0.219
186.055   0.219
186.064   0.221
186.074   0.222
186.084   0.223
186.094   0.225
186.103   0.225
186.113   0.227
186.123   0.227
186.133   0.229
186.142   0.230
186.152   0.230
186.162   0.232
186.171   0.234
186.181   0.235
186.191   0.236
186.201   0.236
186.210   0.238
186.220   0.239
186.230   0.241
186.239   0.242
186.249   0.242
186.259   0.243
186.269   0.245
186.278   0.247
186.288   0.247
186.298   0.249
186.308   0.250
186.317   0.252
186.327   0.252
186.337   0.254
186.346   0.256
186.356   0.257
186.366   0.259
186.376   0.260
186.385   0.262
186.395   0.263
186.405   0.265
186.414   0.266
186.424   0.268
186.434   0.269
186.444   0.271
186.453   0.272
186.463   0.273
186.473   0.275
186.483   0.276
186.492   0.279
186.502   0.281
186.512   0.282
186.521   0.284
186.531   0.286
186.541   0.288
186.551   0.290
186.560   0.291
186.570   0.294
186.580   0.296
186.590   0.297
186.599   0.299
186.609   0.300
186.619   0.304
186.628   0.305
186.638   0.307
186.648   0.309
186.658   0.311
186.667   0.313
186.677   0.316
186.687   0.318
186.696   0.320
186.706   0.323
186.716   0.325
186.726   0.329
186.735   0.331
186.745   0.332
186.755   0.336
186.765   0.339
186.774   0.341
186.784   0.343
186.794   0.346
186.803   0.350
186.813   0.351
186.823   0.355
186.833   0.358
186.842   0.360
186.852   0.364
186.862   0.367
186.871   0.370
186.881   0.372
186.891   0.376
186.901   0.379
186.910   0.383
186.920   0.386
186.930   0.391
186.940   0.393
186.949   0.397
186.959   0.400
186.969   0.406
186.978   0.409
186.988   0.413
186.998   0.417
187.008   0.421
187.017   0.425
187.027   0.430
187.037   0.435
187.047   0.439
187.056   0.444
187.066   0.448
187.076   0.453
187.085   0.458
187.095   0.463
187.105   0.468
187.115   0.473
187.124   0.479
187.134   0.484
187.144   0.490
187.153   0.497
187.163   0.502
187.173   0.509
187.183   0.515
187.192   0.521
187.202   0.528
187.212   0.536
187.222   0.542
187.231   0.551
187.241   0.557
187.251   0.565
187.260   0.572
187.270   0.580
187.280   0.591
187.290   0.599
187.299   0.608
187.309   0.618
187.319   0.628
187.328   0.639
187.338   0.649
187.348   0.660
187.358   0.670
187.367   0.683
187.377   0.694
187.387   0.707
187.397   0.721
187.406   0.734
187.416   0.747
187.426   0.761
187.435   0.776
187.445   0.793
187.455   0.810
187.465   0.826
187.474   0.843
187.484   0.860
187.494   0.876
187.504   0.909
187.513   0.922
187.523   0.939
187.533   0.962
187.542   0.986
187.552   1.011
187.562   1.037
187.572   1.063
187.581   1.092
187.591   1.121
187.601   1.150
187.610   1.182
187.620   1.216
187.630   1.252
187.640   1.287
187.649   1.324
187.659   1.365
187.669   1.407
187.679   1.452
187.688   1.500
187.698   1.549
187.708   1.602
187.717   1.654
187.727   1.709
187.737   1.767
187.747   1.826
187.756   1.887
187.766   1.947
187.776   2.010
187.785   2.075
187.795   2.136
187.805   2.198
187.815   2.258
187.824   2.313
187.834   2.365
187.844   2.410
187.854   2.449
187.863   2.482
187.873   2.503
187.883   2.512
187.892   2.510
187.902   2.498
187.912   2.473
187.922   2.435
187.931   2.389
187.941   2.334
187.951   2.270
187.961   2.201
187.970   2.133
187.980   2.059
187.990   1.987
187.999   1.914
188.009   1.844
188.019   1.777
188.029   1.714
188.038   1.654
188.048   1.594
188.058   1.537
188.067   1.486
188.077   1.435
188.087   1.389
188.097   1.342
188.106   1.300
188.116   1.259
188.126   1.223
188.136   1.187
188.145   1.152
188.155   1.119
188.165   1.088
188.174   1.058
188.184   1.030
188.194   1.003
188.204   0.980
188.213   0.955
188.223   0.935
188.233   0.910
188.243   0.889
188.252   0.868
188.262   0.848
188.272   0.830
188.281   0.812
188.291   0.795
188.301   0.780
188.311   0.763
188.320   0.747
188.330   0.735
188.340   0.720
188.349   0.706
188.359   0.693
188.369   0.681
188.379   0.669
188.388   0.656
188.398   0.646
188.408   0.635
188.418   0.624
188.427   0.613
188.437   0.604
188.447   0.594
188.456   0.584
188.466   0.574
188.476   0.568
188.486   0.561
188.495   0.552
188.505   0.542
188.515   0.535
188.524   0.527
188.534   0.520
188.544   0.513
188.554   0.504
188.563   0.500
188.573   0.492
188.583   0.486
188.593   0.480
188.602   0.473
188.612   0.467
188.622   0.462
188.631   0.456
188.641   0.451
188.651   0.445
188.661   0.441
188.670   0.435
188.680   0.431
188.690   0.425
188.700   0.420
188.709   0.415
188.719   0.411
188.729   0.406
188.738   0.402
188.748   0.397
188.758   0.393
188.768   0.389
188.777   0.384
188.787   0.382
188.797   0.378
188.806   0.373
188.816   0.369
188.826   0.366
188.836   0.362
188.845   0.359
188.855   0.355
188.865   0.352
188.875   0.349
188.884   0.345
188.894   0.343
188.904   0.339
188.913   0.336
188.923   0.333
188.933   0.330
188.943   0.327
188.952   0.324
188.962   0.322
188.972   0.318
188.981   0.317
188.991   0.313
189.001   0.311
189.011   0.309
189.020   0.305
189.030   0.301
189.040   0.300
189.050   0.297
189.059   0.295
189.069   0.292
189.079   0.290
189.088   0.288
189.098   0.286
189.108   0.284
189.118   0.282
189.127   0.279
189.137   0.277
189.147   0.274
189.157   0.274
189.166   0.270
189.176   0.269
189.186   0.267
189.195   0.265
189.205   0.263
189.215   0.261
189.225   0.258
189.234   0.257
189.244   0.256
189.254   0.253
189.263   0.251
189.273   0.249
189.283   0.248
189.293   0.246
189.302   0.244
189.312   0.242
189.322   0.241
189.332   0.239
189.341   0.238
189.351   0.236
189.361   0.236
189.370   0.233
189.380   0.233
189.390   0.230
189.400   0.228
189.409   0.227
189.419   0.225
189.429   0.224
189.438   0.223
189.448   0.220
189.458   0.220
189.468   0.217
189.477   0.216
189.487   0.215
189.497   0.213
189.507   0.212
189.516   0.211
189.526   0.209
189.536   0.209
189.545   0.207
189.555   0.205
189.565   0.205
189.575   0.203
189.584   0.202
189.594   0.201
189.604   0.201
189.614   0.198
189.623   0.197
189.633   0.196
189.643   0.195
189.652   0.194
189.662   0.193
189.672   0.192
189.682   0.191
189.691   0.190
189.701   0.189
189.711   0.186
189.720   0.187
189.730   0.185
189.740   0.185
189.750   0.182
189.759   0.182
189.769   0.180
189.779   0.180
189.789   0.179
189.798   0.178
189.808   0.178
189.818   0.176
189.827   0.174
189.837   0.174
189.847   0.173
189.857   0.173
189.866   0.171
189.876   0.171
189.886   0.170
189.895   0.169
189.905   0.168
189.915   0.166
189.925   0.167
189.934   0.165
189.944   0.164
189.954   0.163
189.964   0.163
189.973   0.161
189.983   0.161
189.993   0.161
190.002   0.160
190.012   0.159
190.022   0.159
190.032   0.158
190.041   0.156
190.051   0.156
190.061   0.155
190.071   0.155
190.080   0.153
190.090   0.153
190.100   0.152
190.109   0.151
190.119   0.150
190.129   0.148
190.139   0.149
190.148   0.148
190.158   0.147
190.168   0.146
190.177   0.146
190.187   0.145
190.197   0.144
190.207   0.144
190.216   0.143
190.226   0.143
190.236   0.142
190.246   0.141
190.255   0.141
190.265   0.140
190.275   0.140
190.284   0.139
190.294   0.138
190.304   0.138
190.314   0.137
190.323   0.137
190.333   0.136
190.343   0.136
190.352   0.135
190.362   0.135
190.372   0.134
190.382   0.133
190.391   0.132
190.401   0.132
190.411   0.131
190.421   0.131
190.430   0.131
190.440   0.130
190.450   0.130
190.459   0.130
190.469   0.129
190.479   0.128
190.489   0.128
190.498   0.128
190.508   0.128
190.518   0.127
190.528   0.126
190.537   0.126
190.547   0.126
190.557   0.124
190.566   0.124
190.576   0.125
190.586   0.123
190.596   0.124
190.605   0.122
190.615   0.122
190.625   0.122
190.634   0.122
190.644   0.121
190.654   0.119
190.664   0.120
190.673   0.120
190.683   0.119
190.693   0.119
190.703   0.118
190.712   0.119
190.722   0.118
190.732   0.117
190.741   0.117
190.751   0.117
190.761   0.116
190.771   0.116
190.780   0.116
190.790   0.115
190.800   0.114
190.810   0.115
190.819   0.114
190.829   0.113
190.839   0.113
190.848   0.113
190.858   0.113
190.868   0.112
190.878   0.112
190.887   0.111
190.897   0.111
190.907   0.110
190.916   0.111
190.926   0.110
190.936   0.111
190.946   0.109
190.955   0.108
190.965   0.108
190.975   0.109
190.985   0.108
190.994   0.108
191.004   0.108
191.014   0.107
191.023   0.107
191.033   0.106
191.043   0.106
191.053   0.106
191.062   0.105
191.072   0.105
191.082   0.106
191.091   0.105
191.101   0.104
191.111   0.104
191.121   0.104
191.130   0.104
191.140   0.103
191.150   0.102
191.160   0.103
191.169   0.102
191.179   0.102
191.189   0.101
191.198   0.101
191.208   0.102
191.218   0.100
191.228   0.100
191.237   0.100
191.247   0.100
191.257   0.099
191.267   0.099
191.276   0.099
191.286   0.099
191.296   0.099
191.305   0.099
191.315   0.098
191.325   0.097
191.335   0.098
191.344   0.097
191.354   0.097
191.364   0.097
191.373   0.098
191.383   0.096
191.393   0.096
191.403   0.096
191.412   0.096
191.422   0.095
191.432   0.095
191.442   0.096
191.451   0.094
191.461   0.094
191.471   0.094
191.480   0.094
191.490   0.093
191.500   0.093
191.510   0.094
191.519   0.093
191.529   0.093
191.539   0.092
191.548   0.093
191.558   0.092
191.568   0.092
191.578   0.092
191.587   0.091
191.597   0.091
191.607   0.092
191.617   0.091
191.626   0.090
191.636   0.091
191.646   0.090
191.655   0.090
191.665   0.089
191.675   0.089
191.685   0.089
191.694   0.089
191.704   0.088
191.714   0.088
191.724   0.088
191.733   0.088
191.743   0.088
191.753   0.088
191.762   0.087
191.772   0.087
191.782   0.086
191.792   0.087
191.801   0.087
191.811   0.085
191.821   0.085
191.830   0.086
191.840   0.086
191.850   0.086
191.860   0.085
191.869   0.085
191.879   0.084
191.889   0.085
191.899   0.085
191.908   0.085
191.918   0.084
191.928   0.085
191.937   0.084
191.947   0.084
191.957   0.083
191.967   0.083
191.976   0.083
191.986   0.083
191.996   0.083
192.005   0.083
192.015   0.082
192.025   0.083
192.035   0.083
192.044   0.082
192.054   0.082
192.064   0.082
192.074   0.082
192.083   0.082
192.093   0.081
192.103   0.081
192.112   0.081
192.122   0.081
192.132   0.081
192.142   0.081
192.151   0.080
192.161   0.081
192.171   0.080
192.181   0.081
192.190   0.081
192.200   0.079
192.210   0.079
192.219   0.079
192.229   0.079
192.239   0.079
192.249   0.079
192.258   0.078
192.268   0.079
192.278   0.078
192.287   0.078
192.297   0.078
192.307   0.078
192.317   0.079
192.326   0.077
192.336   0.078
192.346   0.078
192.356   0.077
192.365   0.078
192.375   0.077
192.385   0.078
192.394   0.077
192.404   0.077
192.414   0.077
192.424   0.077
192.433   0.077
192.443   0.077
192.453   0.076
192.462   0.077
192.472   0.076
192.482   0.076
192.492   0.077
192.501   0.075
192.511   0.076
192.521   0.076
192.531   0.075
192.540   0.075
192.550   0.075
192.560   0.075
192.569   0.075
192.579   0.075
192.589   0.074
192.599   0.074
192.608   0.075
192.618   0.074
192.628   0.075
192.638   0.074
192.647   0.074
192.657   0.073
192.667   0.073
192.676   0.073
192.686   0.074
192.696   0.073
192.706   0.073
192.715   0.073
192.725   0.072
192.735   0.072
192.744   0.073
192.754   0.073
192.764   0.073
192.774   0.073
192.783   0.073
192.793   0.072
192.803   0.073
192.813   0.073
192.822   0.072
192.832   0.072
192.842   0.072
192.851   0.071
192.861   0.073
192.871   0.072
192.881   0.071
192.890   0.071
192.900   0.070
192.910   0.071
192.919   0.071
192.929   0.071
192.939   0.071
192.949   0.070
192.958   0.071
192.968   0.071
192.978   0.070
192.988   0.070
192.997   0.070
193.007   0.070
193.017   0.070
193.026   0.070
193.036   0.070
193.046   0.070
193.056   0.070
193.065   0.069
193.075   0.069
193.085   0.070
193.095   0.070
193.104   0.069



